Efficiency(%)	JSC(mA/cm^2)	VOC(V)	FF				 
1.00997E+0	3.95869E-7	2.44364E-3	-2.49293E-3
9.99978E-1	1.39833E-3	8.63167E+0	-8.71866E+0
9.89979E-1	1.39544E-3	8.61383E+0	-8.61364E+0
9.79981E-1	1.39302E-3	8.59889E+0	-8.51187E+0
9.69980E-1	1.38676E-3	8.56025E+0	-8.38714E+0
9.59976E-1	1.38324E-3	8.53852E+0	-8.27957E+0
9.49979E-1	1.38316E-3	8.53802E+0	-8.19287E+0
9.39977E-1	1.37774E-3	8.50457E+0	-8.07485E+0
9.29969E-1	1.37581E-3	8.49265E+0	-7.97768E+0
9.19971E-1	1.37234E-3	8.47123E+0	-7.87201E+0
9.09974E-1	1.36533E-3	8.42796E+0	-7.74669E+0
8.99978E-1	1.35984E-3	8.39407E+0	-7.63079E+0
8.89975E-1	1.35915E-3	8.38981E+0	-7.54215E+0
8.79972E-1	1.35277E-3	8.35043E+0	-7.42237E+0
8.69937E-1	1.35048E-3	8.33630E+0	-7.32531E+0
8.59937E-1	1.34866E-3	8.32506E+0	-7.23134E+0
8.49936E-1	1.34131E-3	8.27969E+0	-7.10829E+0
8.39939E-1	1.33836E-3	8.26148E+0	-7.00923E+0
8.29937E-1	1.33516E-3	8.24173E+0	-6.90921E+0
8.19936E-1	1.33097E-3	8.21586E+0	-6.80453E+0
8.09938E-1	1.32728E-3	8.19309E+0	-6.70292E+0
7.99934E-1	1.31978E-3	8.14679E+0	-6.58272E+0
7.89936E-1	1.31750E-3	8.13272E+0	-6.48922E+0
7.79928E-1	1.31364E-3	8.10889E+0	-6.38823E+0
7.69928E-1	1.30627E-3	8.06340E+0	-6.27094E+0
7.59930E-1	1.30528E-3	8.05728E+0	-6.18482E+0
7.49932E-1	1.29977E-3	8.02327E+0	-6.07768E+0
7.39924E-1	1.29534E-3	7.99593E+0	-5.97614E+0
7.29927E-1	1.29477E-3	7.99241E+0	-5.89280E+0
7.19925E-1	1.28736E-3	7.94667E+0	-5.77879E+0
7.09924E-1	1.28301E-3	7.91981E+0	-5.67926E+0
6.99926E-1	1.28220E-3	7.91481E+0	-5.59574E+0
6.89929E-1	1.27464E-3	7.86815E+0	-5.48330E+0
6.79931E-1	1.27104E-3	7.84593E+0	-5.38857E+0
6.69928E-1	1.26374E-3	7.80086E+0	-5.27881E+0
6.59928E-1	1.25974E-3	7.77617E+0	-5.18355E+0
6.49927E-1	1.25724E-3	7.76074E+0	-5.09486E+0
6.39928E-1	1.25096E-3	7.72198E+0	-4.99142E+0
6.29925E-1	1.24825E-3	7.70525E+0	-4.90276E+0
6.19921E-1	1.24565E-3	7.68920E+0	-4.81484E+0
6.09922E-1	1.23963E-3	7.65204E+0	-4.71429E+0
5.99922E-1	1.23410E-3	7.61790E+0	-4.61631E+0
5.89920E-1	1.23128E-3	7.60049E+0	-4.52897E+0
5.79922E-1	1.22360E-3	7.55309E+0	-4.42445E+0
5.69929E-1	1.22042E-3	7.53346E+0	-4.33690E+0
5.59928E-1	1.21552E-3	7.50321E+0	-4.24369E+0
5.49933E-1	1.20981E-3	7.46796E+0	-4.14836E+0
5.39930E-1	1.20764E-3	7.45457E+0	-4.06560E+0
5.29929E-1	1.20291E-3	7.42537E+0	-3.97467E+0
5.19926E-1	1.19550E-3	7.37963E+0	-3.87562E+0
5.09927E-1	1.19417E-3	7.37142E+0	-3.79685E+0
4.99927E-1	1.18769E-3	7.33142E+0	-3.70220E+0
4.89922E-1	1.18562E-3	7.31864E+0	-3.62178E+0
4.79924E-1	1.18186E-3	7.29543E+0	-3.53662E+0
4.69927E-1	1.17272E-3	7.23901E+0	-3.43617E+0
4.59931E-1	1.17154E-3	7.23173E+0	-3.35969E+0
4.49926E-1	1.16418E-3	7.18630E+0	-3.26596E+0
4.39926E-1	1.16083E-3	7.16562E+0	-3.18418E+0
4.29929E-1	1.15639E-3	7.13821E+0	-3.09992E+0
4.19931E-1	1.14975E-3	7.09722E+0	-3.01045E+0
4.09934E-1	1.14778E-3	7.08506E+0	-2.93375E+0
3.99929E-1	1.14169E-3	7.04747E+0	-2.84696E+0
3.89930E-1	1.13629E-3	7.01414E+0	-2.76265E+0
3.79925E-1	1.13134E-3	6.98358E+0	-2.68004E+0
3.69925E-1	1.12502E-3	6.94457E+0	-2.59492E+0
3.59924E-1	1.12118E-3	6.92086E+0	-2.51615E+0
3.49925E-1	1.11620E-3	6.89012E+0	-2.43538E+0
3.39914E-1	1.11106E-3	6.85840E+0	-2.35481E+0
3.29917E-1	1.10571E-3	6.82537E+0	-2.27455E+0
3.19916E-1	1.10225E-3	6.80401E+0	-2.19870E+0
3.09912E-1	1.09491E-3	6.75870E+0	-2.11576E+0
2.99916E-1	1.08948E-3	6.72519E+0	-2.03736E+0
2.89913E-1	1.08583E-3	6.70265E+0	-1.96281E+0
2.79918E-1	1.07897E-3	6.66031E+0	-1.88317E+0
2.69915E-1	1.07523E-3	6.63722E+0	-1.80958E+0
2.59914E-1	1.07040E-3	6.60741E+0	-1.73470E+0
2.49915E-1	1.06491E-3	6.57352E+0	-1.65942E+0
2.39919E-1	1.06073E-3	6.54772E+0	-1.58679E+0
2.29919E-1	1.05749E-3	6.52772E+0	-1.51601E+0
2.19918E-1	1.05091E-3	6.48710E+0	-1.44104E+0
2.09916E-1	1.04790E-3	6.46852E+0	-1.37156E+0
1.99912E-1	1.04222E-3	6.43346E+0	-1.29912E+0
1.89910E-1	1.03573E-3	6.39340E+0	-1.22643E+0
1.79911E-1	1.03070E-3	6.36235E+0	-1.15622E+0
1.69915E-1	1.02166E-3	6.30654E+0	-1.08240E+0
1.59913E-1	1.01780E-3	6.28272E+0	-1.01484E+0
1.49914E-1	1.01153E-3	6.24401E+0	-9.45520E-1
1.39914E-1	1.00509E-3	6.20426E+0	-8.76831E-1
1.29915E-1	1.00138E-3	6.18136E+0	-8.11163E-1
1.19907E-1	9.94722E-4	6.14026E+0	-7.43697E-1
1.09910E-1	9.88547E-4	6.10214E+0	-6.77461E-1
9.99055E-2	9.83470E-4	6.07080E+0	-6.12633E-1
8.99017E-2	9.79960E-4	6.04914E+0	-5.49321E-1
7.99077E-2	9.76306E-4	6.02658E+0	-4.86435E-1
6.99077E-2	9.69626E-4	5.98535E+0	-4.22648E-1
5.99086E-2	9.65725E-4	5.96127E+0	-3.60738E-1
4.98981E-2	9.59306E-4	5.92164E+0	-2.98463E-1
3.98986E-2	9.53763E-4	5.88743E+0	-2.37273E-1
2.98982E-2	9.47130E-4	5.84648E+0	-1.76565E-1
1.99008E-2	9.39235E-4	5.79775E+0	-1.16545E-1
9.89723E-3	9.35480E-4	5.77457E+0	-5.77295E-2
-1.00136E-4	9.23764E-4	5.70225E+0	5.76768E-4
-9.96947E-3	9.21330E-4	5.68722E+0	5.72713E-2
-1.99740E-2	9.20112E-4	5.67970E+0	1.14592E-1
-2.99766E-2	9.14652E-4	5.64600E+0	1.70957E-1
-3.99764E-2	9.07043E-4	5.59903E+0	2.26090E-1
-4.99756E-2	9.01722E-4	5.56619E+0	2.80983E-1
-5.99794E-2	8.96951E-4	5.53673E+0	3.35444E-1
-6.99720E-2	8.89468E-4	5.49054E+0	3.88065E-1
-7.99742E-2	8.83649E-4	5.45462E+0	4.40636E-1
-8.99699E-2	8.78375E-4	5.42207E+0	4.92750E-1
-9.99753E-2	8.69918E-4	5.36986E+0	5.42277E-1
-1.09974E-1	8.66466E-4	5.34856E+0	5.94143E-1
-1.19976E-1	8.59541E-4	5.30581E+0	6.43000E-1
-1.29974E-1	8.55361E-4	5.28001E+0	6.93195E-1
-1.39973E-1	8.47393E-4	5.23082E+0	7.39569E-1
-1.49971E-1	8.39167E-4	5.18004E+0	7.84703E-1
-1.59972E-1	8.34351E-4	5.15031E+0	8.32228E-1
-1.69971E-1	8.30712E-4	5.12785E+0	8.80390E-1
-1.79971E-1	8.23198E-4	5.08147E+0	9.23755E-1
-1.89972E-1	8.18748E-4	5.05400E+0	9.69817E-1
-1.99969E-1	8.09668E-4	4.99795E+0	1.00953E+0
-2.09976E-1	8.03136E-4	4.95763E+0	1.05150E+0
-2.19975E-1	7.97105E-4	4.92040E+0	1.09330E+0
-2.29975E-1	7.90485E-4	4.87954E+0	1.13351E+0
-2.39979E-1	7.86800E-4	4.85679E+0	1.17730E+0
-2.49981E-1	7.78224E-4	4.80385E+0	1.21300E+0
-2.59980E-1	7.72291E-4	4.76723E+0	1.25190E+0
-2.69979E-1	7.67049E-4	4.73487E+0	1.29123E+0
-2.79977E-1	7.58611E-4	4.68278E+0	1.32431E+0
-2.89977E-1	7.51785E-4	4.64065E+0	1.35927E+0
-2.99975E-1	7.46437E-4	4.60764E+0	1.39614E+0
-3.09977E-1	7.39727E-4	4.56622E+0	1.42972E+0
-3.19982E-1	7.32062E-4	4.51890E+0	1.46057E+0
-3.29980E-1	7.26033E-4	4.48169E+0	1.49380E+0
-3.39977E-1	7.18459E-4	4.43493E+0	1.52300E+0
-3.49989E-1	7.11002E-4	4.38890E+0	1.55158E+0
-3.59987E-1	7.04999E-4	4.35185E+0	1.58243E+0
-3.69988E-1	6.96849E-4	4.30154E+0	1.60759E+0
-3.79984E-1	6.90769E-4	4.26401E+0	1.63662E+0
-3.89987E-1	6.85159E-4	4.22938E+0	1.66606E+0
-3.99985E-1	6.76565E-4	4.17633E+0	1.68734E+0
-4.09985E-1	6.68110E-4	4.12414E+0	1.70791E+0
-4.19985E-1	6.61257E-4	4.08183E+0	1.73163E+0
-4.29985E-1	6.56693E-4	4.05366E+0	1.76062E+0
-4.39986E-1	6.48206E-4	4.00127E+0	1.77829E+0
-4.49984E-1	6.41666E-4	3.96090E+0	1.80035E+0
-4.59984E-1	6.32766E-4	3.90596E+0	1.81483E+0
-4.69985E-1	6.24200E-4	3.85309E+0	1.82918E+0
-4.79986E-1	6.16857E-4	3.80776E+0	1.84613E+0
-4.89987E-1	6.06773E-4	3.74551E+0	1.85379E+0
-4.99992E-1	6.00627E-4	3.70757E+0	1.87248E+0
-5.09989E-1	5.92838E-4	3.65949E+0	1.88515E+0
-5.19996E-1	5.84417E-4	3.60751E+0	1.89484E+0
-5.29993E-1	5.77455E-4	3.56454E+0	1.90826E+0
-5.39995E-1	5.67982E-4	3.50606E+0	1.91238E+0
-5.49997E-1	5.58033E-4	3.44465E+0	1.91368E+0
-5.59993E-1	5.50642E-4	3.39902E+0	1.92266E+0
-5.69991E-1	5.42972E-4	3.35168E+0	1.92972E+0
-5.79989E-1	5.33816E-4	3.29516E+0	1.93046E+0
-5.89989E-1	5.24128E-4	3.23536E+0	1.92811E+0
-5.99989E-1	5.14573E-4	3.17638E+0	1.92504E+0
-6.09992E-1	5.06041E-4	3.12371E+0	1.92468E+0
-6.19991E-1	4.95791E-4	3.06044E+0	1.91661E+0
-6.29990E-1	4.86793E-4	3.00490E+0	1.91218E+0
-6.40022E-1	4.78064E-4	2.95101E+0	1.90779E+0
-6.50028E-1	4.68390E-4	2.89130E+0	1.89841E+0
-6.60026E-1	4.56822E-4	2.81989E+0	1.88000E+0
-6.70027E-1	4.45217E-4	2.74825E+0	1.86000E+0
-6.80031E-1	4.34387E-4	2.68140E+0	1.84185E+0
-6.90030E-1	4.22838E-4	2.61011E+0	1.81925E+0
-7.00030E-1	4.10966E-4	2.53683E+0	1.79379E+0
-7.10027E-1	3.97602E-4	2.45433E+0	1.76025E+0
-7.20028E-1	3.83607E-4	2.36794E+0	1.72221E+0
-7.30027E-1	3.69174E-4	2.27885E+0	1.68043E+0
-7.40029E-1	3.52495E-4	2.17590E+0	1.62649E+0
-7.50030E-1	3.33903E-4	2.06113E+0	1.56152E+0
-7.60032E-1	3.14334E-4	1.94033E+0	1.48961E+0
-7.70033E-1	2.91733E-4	1.80082E+0	1.40070E+0
-7.80031E-1	2.66108E-4	1.64264E+0	1.29425E+0
-7.90037E-1	2.37167E-4	1.46399E+0	1.16829E+0
-8.00038E-1	2.04791E-4	1.26414E+0	1.02158E+0
-8.10037E-1	1.67089E-4	1.03141E+0	8.43922E-1
-8.20037E-1	1.23283E-4	7.61006E-1	6.30357E-1
-8.30044E-1	7.38191E-5	4.55673E-1	3.82050E-1
-8.40039E-1	1.88081E-5	1.16099E-1	9.85131E-2
-8.50043E-1	-4.30913E-5	-2.65996E-1	-2.28392E-1
-8.60044E-1	-1.11893E-4	-6.90698E-1	-6.00031E-1
-8.70042E-1	-1.87105E-4	-1.15497E+0	-1.01502E+0
-8.80042E-1	-2.68755E-4	-1.65898E+0	-1.47472E+0
-8.90039E-1	-3.56844E-4	-2.20274E+0	-1.98033E+0
-9.00045E-1	-4.50872E-4	-2.78316E+0	-2.53027E+0
-9.10039E-1	-5.50438E-4	-3.39777E+0	-3.12333E+0
-9.20040E-1	-6.55157E-4	-4.04418E+0	-3.75839E+0
-9.30042E-1	-7.64691E-4	-4.72031E+0	-4.43444E+0
-9.40046E-1	-8.79122E-4	-5.42668E+0	-5.15286E+0
-9.50046E-1	-9.97545E-4	-6.15769E+0	-5.90918E+0
-9.60041E-1	-1.11976E-3	-6.91210E+0	-6.70293E+0
-9.70046E-1	-1.24557E-3	-7.68870E+0	-7.53373E+0
-9.80044E-1	-1.37514E-3	-8.48852E+0	-8.40315E+0
-9.90043E-1	-1.50646E-3	-9.29914E+0	-9.29954E+0
-1.00004E+0	-1.64199E-3	-1.01357E+1	-1.02385E+1
-1.01004E+0	-1.77873E-3	-1.09798E+1	-1.12021E+1
1.93046E+0	5.70225E+0	-8.40039E-1	3.98979E-1
2.02053E+0	5.99226E+0	-8.40035E-1	3.97386E-1
1.41375E-4	2.14827E-4	-8.45933E-1	7.70164E-1
4.21802E-1	3.54686E+0	-3.49985E-1	3.36396E-1
2.12005E+0	6.32358E+0	-8.40040E-1	3.95110E-1
2.17467E+0	6.49173E+0	-8.40039E-1	3.94792E-1
